# 1=wavelength (angstroms), 2=relative flux
 1100.00     0.000E+00
 1104.00     0.000E+00
 1108.00     0.000E+00
 1112.00     0.000E+00
 1116.00     0.000E+00
 1120.00     0.000E+00
 1124.00     0.000E+00
 1128.00     0.000E+00
 1132.00     0.000E+00
 1136.00     0.000E+00
 1140.00     0.000E+00
 1144.00     0.000E+00
 1148.00     0.000E+00
 1152.00     0.000E+00
 1156.00     0.000E+00
 1160.00     0.000E+00
 1164.00     0.000E+00
 1168.00     0.000E+00
 1172.00     0.000E+00
 1176.00     0.000E+00
 1180.00     0.000E+00
 1184.00     0.000E+00
 1188.00     0.000E+00
 1192.00     0.000E+00
 1196.00     0.000E+00
 1200.00     0.000E+00
 1204.00     0.000E+00
 1208.00     0.000E+00
 1212.00     0.000E+00
 1216.00     0.000E+00
 1220.00     0.000E+00
 1224.00     0.000E+00
 1228.00     0.000E+00
 1232.00     5.521E-15
 1236.00     5.548E-15
 1240.00     3.995E-15
 1244.00     3.786E-15
 1248.00     3.654E-15
 1252.00     5.167E-15
 1256.00     4.279E-15
 1260.00     3.067E-15
 1264.00     4.259E-15
 1268.00     5.404E-15
 1272.00     4.190E-15
 1276.00     6.226E-15
 1280.00     3.387E-15
 1284.00     3.716E-15
 1288.00     3.309E-15
 1292.00     3.343E-15
 1296.00     2.443E-15
 1300.00     2.915E-15
 1304.00     3.158E-15
 1308.00     2.024E-15
 1312.00     2.911E-15
 1316.00     3.179E-15
 1320.00     3.566E-15
 1324.00     3.049E-15
 1328.00     1.734E-15
 1332.00     2.541E-15
 1336.00     2.036E-15
 1340.00     2.955E-15
 1344.00     3.172E-15
 1348.00     2.956E-15
 1352.00     2.644E-15
 1356.00     3.044E-15
 1360.00     3.060E-15
 1364.00     1.993E-15
 1368.00     1.731E-15
 1372.00     2.382E-15
 1376.00     2.566E-15
 1380.00     3.066E-15
 1384.00     2.313E-15
 1388.00     1.602E-15
 1392.00     3.331E-15
 1396.00     2.807E-15
 1400.00     1.939E-15
 1404.00     1.489E-15
 1408.00     1.371E-15
 1412.00     2.996E-15
 1416.00     1.115E-15
 1420.00     3.089E-15
 1424.00     2.022E-15
 1428.00     2.849E-15
 1432.00     3.408E-15
 1436.00     2.112E-15
 1440.00     1.691E-15
 1444.00     3.880E-15
 1448.00     2.481E-15
 1452.00     2.194E-15
 1456.00     3.411E-15
 1460.00     3.048E-15
 1464.00     2.945E-15
 1468.00     2.757E-15
 1472.00     3.890E-15
 1476.00     3.257E-15
 1480.00     4.694E-15
 1484.00     3.260E-15
 1488.00     1.861E-15
 1492.00     2.720E-15
 1496.00     1.364E-15
 1500.00     2.344E-15
 1504.00     3.642E-15
 1508.00     3.517E-15
 1512.00     1.521E-15
 1516.00     1.930E-15
 1520.00     1.825E-15
 1524.00     2.158E-15
 1528.00     2.981E-15
 1532.00     4.440E-15
 1536.00     2.145E-15
 1540.00     1.708E-15
 1544.00     3.039E-15
 1548.00     4.010E-15
 1552.00     2.010E-15
 1556.00     1.975E-15
 1560.00     1.115E-15
 1564.00     1.722E-15
 1568.00     1.686E-15
 1572.00     2.546E-15
 1576.00     2.388E-15
 1580.00     2.499E-15
 1584.00     2.129E-15
 1588.00     2.645E-15
 1592.00     4.848E-15
 1596.00     3.454E-15
 1600.00     2.570E-15
 1604.00     1.609E-15
 1608.00     1.137E-15
 1612.00     2.506E-15
 1616.00     2.111E-15
 1620.00     2.271E-15
 1624.00     2.291E-15
 1628.00     1.112E-15
 1632.00     1.965E-15
 1636.00     1.988E-15
 1640.00     3.897E-15
 1644.00     2.646E-15
 1648.00     4.459E-15
 1652.00     2.193E-15
 1656.00     1.904E-15
 1660.00     3.056E-15
 1664.00     2.862E-15
 1668.00     2.811E-15
 1672.00     1.817E-15
 1676.00     8.716E-16
 1680.00     1.477E-15
 1684.00     2.208E-15
 1688.00     2.383E-15
 1692.00     1.219E-15
 1696.00     1.491E-15
 1700.00     1.858E-15
 1704.00     1.905E-15
 1708.00     2.023E-15
 1712.00     1.229E-15
 1716.00     2.788E-15
 1720.00     3.658E-15
 1724.00     3.084E-15
 1728.00     2.994E-15
 1732.00     4.650E-15
 1736.00     2.688E-15
 1740.00     2.129E-15
 1744.00     1.135E-15
 1748.00     2.749E-15
 1752.00     1.948E-15
 1756.00     2.439E-15
 1760.00     2.777E-15
 1764.00     1.123E-15
 1768.00     2.489E-15
 1772.00     2.876E-15
 1776.00     2.144E-15
 1780.00     2.113E-15
 1784.00     2.041E-15
 1788.00     2.251E-15
 1792.00     2.438E-15
 1796.00     2.331E-15
 1800.00     2.778E-15
 1804.00     4.674E-15
 1808.00     4.665E-15
 1812.00     3.472E-15
 1816.00     2.497E-15
 1820.00     1.178E-15
 1824.00     1.375E-15
 1828.00     2.071E-15
 1832.00     1.629E-15
 1836.00     1.006E-15
 1840.00     1.191E-15
 1844.00     9.092E-16
 1848.00     8.501E-16
 1852.00     1.502E-15
 1856.00     1.888E-15
 1860.00     2.073E-15
 1864.00     1.307E-15
 1868.00     2.032E-15
 1872.00     1.108E-15
 1876.00     1.304E-15
 1880.00     1.249E-15
 1884.00     1.626E-15
 1888.00     1.512E-15
 1892.00     1.525E-15
 1896.00     1.291E-15
 1900.00     1.455E-15
 1904.00     1.675E-15
 1908.00     1.313E-15
 1912.00     9.207E-16
 1916.00     1.034E-15
 1920.00     9.360E-16
 1924.00     9.052E-16
 1928.00     8.966E-16
 1932.00     1.162E-15
 1936.00     2.178E-15
 1940.00     2.755E-15
 1944.00     2.877E-15
 1948.00     2.202E-15
 1952.00     2.855E-15
 1956.00     3.011E-15
 1960.00     5.656E-15
 1964.00     3.666E-15
 1968.00     4.176E-15
 1972.00     7.445E-16
 1976.00     8.494E-16
 1980.00     1.856E-15
 1984.00     8.458E-16
 1988.00     2.289E-15
 1992.00     5.281E-15
 1996.00     4.068E-15
 2000.00     2.877E-15
 2004.00     1.207E-15
 2008.00     2.172E-15
 2012.00     9.500E-16
 2016.00     1.236E-15
 2020.00     2.753E-15
 2024.00     5.860E-15
 2028.00     1.419E-15
 2032.00     1.681E-15
 2036.00     6.399E-15
 2040.00     6.564E-16
 2044.00     2.028E-15
 2048.00     4.343E-15
 2052.00     1.495E-15
 2056.00     8.651E-15
 2060.00     2.226E-15
 2064.00     2.907E-15
 2068.00     3.954E-15
 2072.00     4.992E-15
 2076.00     2.367E-15
 2080.00     6.040E-15
 2084.00     2.449E-15
 2088.00     1.683E-15
 2092.00     1.758E-15
 2096.00     1.353E-17
 2100.00     1.802E-15
 2104.00     1.374E-15
 2108.00     9.637E-16
 2112.00     1.101E-15
 2116.00     1.099E-15
 2120.00     4.927E-15
 2124.00     2.101E-15
 2128.00     1.669E-15
 2132.00     1.686E-15
 2136.00     3.390E-15
 2140.00     4.668E-15
 2144.00     1.808E-15
 2148.00     6.892E-16
 2152.00     1.450E-15
 2156.00     1.488E-15
 2160.00     1.520E-15
 2164.00     6.382E-15
 2168.00     2.604E-15
 2172.00     4.186E-15
 2176.00     2.112E-15
 2180.00     2.328E-15
 2184.00     3.859E-15
 2188.00     1.044E-15
 2192.00     3.345E-15
 2196.00     2.741E-15
 2200.00     5.132E-15
 2204.00     4.321E-15
 2208.00     2.439E-15
 2212.00     9.812E-16
 2216.00     3.455E-15
 2220.00     4.878E-15
 2224.00     3.041E-15
 2228.00     1.250E-15
 2232.00     5.237E-15
 2236.00     3.764E-15
 2240.00     5.355E-15
 2244.00     3.418E-15
 2248.00     2.859E-15
 2252.00     7.304E-15
 2256.00     1.536E-15
 2260.00     1.557E-15
 2264.00     2.281E-15
 2268.00     1.457E-15
 2272.00     7.654E-15
 2276.00     2.884E-15
 2280.00     3.146E-15
 2284.00     2.320E-15
 2288.00     4.178E-15
 2292.00     2.632E-15
 2296.00     8.864E-16
 2300.00     1.482E-15
 2304.00     5.105E-15
 2308.00     1.200E-15
 2312.00     4.175E-15
 2316.00     1.314E-15
 2320.00     2.921E-15
 2324.00     2.395E-15
 2328.00     2.187E-15
 2332.00     2.076E-15
 2336.00     1.569E-15
 2340.00     8.799E-16
 2344.00     2.162E-15
 2348.00     1.531E-15
 2352.00     1.433E-15
 2356.00     1.006E-15
 2360.00     1.740E-15
 2364.00     6.178E-16
 2368.00     2.360E-15
 2372.00     8.162E-16
 2376.00     5.455E-16
 2380.00     3.169E-15
 2384.00     8.269E-16
 2388.00     8.284E-16
 2392.00     1.248E-15
 2396.00     1.567E-15
 2400.00     1.227E-15
 2404.00     1.640E-15
 2408.00     8.673E-16
 2412.00     1.789E-15
 2416.00     1.711E-15
 2420.00     1.627E-15
 2424.00     2.106E-15
 2428.00     2.645E-15
 2432.00     1.168E-15
 2436.00     1.567E-15
 2440.00     2.091E-15
 2444.00     3.002E-15
 2448.00     1.873E-15
 2452.00     1.763E-15
 2456.00     1.560E-15
 2460.00     7.724E-16
 2464.00     1.504E-15
 2468.00     1.561E-15
 2472.00     1.595E-15
 2476.00     1.651E-15
 2480.00     1.149E-15
 2484.00     1.842E-15
 2488.00     7.067E-16
 2492.00     2.284E-15
 2496.00     1.421E-15
 2500.00     8.136E-16
 2504.00     1.374E-15
 2508.00     1.461E-15
 2512.00     9.599E-16
 2516.00     1.314E-15
 2520.00     6.232E-16
 2524.00     9.141E-16
 2528.00     6.656E-16
 2532.00     1.274E-15
 2536.00     1.537E-15
 2540.00     1.457E-15
 2544.00     1.010E-15
 2548.00     1.483E-15
 2552.00     1.469E-15
 2556.00     7.171E-16
 2560.00     1.049E-15
 2564.00     1.753E-15
 2568.00     7.850E-16
 2572.00     2.115E-15
 2576.00     1.163E-15
 2580.00     1.758E-15
 2584.00     2.075E-15
 2588.00     1.251E-15
 2592.00     2.199E-15
 2596.00     1.940E-15
 2600.00     2.031E-15
 2604.00     1.102E-15
 2608.00     2.287E-15
 2612.00     2.038E-15
 2616.00     2.046E-15
 2620.00     9.901E-16
 2624.00     2.042E-15
 2628.00     1.898E-15
 2632.00     2.868E-15
 2636.00     2.329E-15
 2640.00     2.291E-15
 2644.00     2.725E-15
 2648.00     3.449E-15
 2652.00     2.538E-15
 2656.00     3.146E-15
 2660.00     2.664E-15
 2664.00     2.359E-15
 2668.00     2.659E-15
 2672.00     2.254E-15
 2676.00     2.069E-15
 2680.00     2.389E-15
 2684.00     2.507E-15
 2688.00     3.267E-15
 2692.00     2.976E-15
 2696.00     2.987E-15
 2700.00     2.666E-15
 2704.00     2.773E-15
 2708.00     2.104E-15
 2712.00     2.260E-15
 2716.00     1.970E-15
 2720.00     2.441E-15
 2724.00     1.690E-15
 2728.00     1.689E-15
 2732.00     1.886E-15
 2736.00     2.329E-15
 2740.00     1.920E-15
 2744.00     1.817E-15
 2748.00     1.736E-15
 2752.00     2.626E-15
 2756.00     2.685E-15
 2760.00     2.477E-15
 2764.00     2.497E-15
 2768.00     2.566E-15
 2772.00     2.594E-15
 2776.00     2.209E-15
 2780.00     2.689E-15
 2784.00     1.559E-15
 2788.00     1.376E-15
 2792.00     1.612E-15
 2796.00     1.497E-15
 2800.00     1.621E-15
 2804.00     1.482E-15
 2808.00     1.905E-15
 2812.00     2.700E-15
 2816.00     2.254E-15
 2820.00     2.694E-15
 2824.00     2.939E-15
 2828.00     2.706E-15
 2832.00     2.619E-15
 2836.00     2.624E-15
 2840.00     2.635E-15
 2844.00     2.344E-15
 2848.00     2.174E-15
 2852.00     2.001E-15
 2856.00     2.462E-15
 2860.00     2.672E-15
 2864.00     2.749E-15
 2868.00     2.683E-15
 2872.00     2.729E-15
 2876.00     3.651E-15
 2880.00     3.288E-15
 2884.00     3.111E-15
 2888.00     2.705E-15
 2892.00     3.560E-15
 2896.00     4.066E-15
 2900.00     4.305E-15
 2904.00     4.529E-15
 2908.00     4.297E-15
 2912.00     3.890E-15
 2916.00     4.067E-15
 2920.00     3.657E-15
 2924.00     3.710E-15
 2928.00     4.079E-15
 2932.00     3.531E-15
 2936.00     3.407E-15
 2940.00     4.409E-15
 2944.00     4.669E-15
 2948.00     3.812E-15
 2952.00     4.511E-15
 2956.00     4.422E-15
 2960.00     3.832E-15
 2964.00     4.077E-15
 2968.00     4.684E-15
 2972.00     4.362E-15
 2976.00     4.439E-15
 2980.00     4.235E-15
 2984.00     3.870E-15
 2988.00     3.674E-15
 2992.00     3.281E-15
 2996.00     2.886E-15
 3000.00     3.420E-15
 3004.00     4.436E-15
 3008.00     5.084E-15
 3012.00     5.071E-15
 3016.00     4.479E-15
 3020.00     4.264E-15
 3024.00     4.263E-15
 3028.00     4.492E-15
 3032.00     4.015E-15
 3036.00     4.012E-15
 3040.00     4.378E-15
 3044.00     4.626E-15
 3048.00     5.443E-15
 3052.00     4.117E-15
 3056.00     3.784E-15
 3060.00     5.409E-15
 3064.00     5.579E-15
 3068.00     5.340E-15
 3072.00     5.581E-15
 3076.00     4.865E-15
 3080.00     4.723E-15
 3084.00     4.672E-15
 3088.00     3.908E-15
 3092.00     2.828E-15
 3096.00     4.959E-15
 3100.00     5.572E-15
 3104.00     7.018E-15
 3108.00     4.294E-15
 3112.00     3.165E-15
 3116.00     5.161E-15
 3120.00     5.274E-15
 3124.00     5.809E-15
 3128.00     3.952E-15
 3132.00     3.938E-15
 3136.00     3.382E-15
 3140.00     4.177E-15
 3144.00     4.192E-15
 3148.00     4.769E-15
 3152.00     4.314E-15
 3156.00     2.642E-15
 3160.00     3.045E-15
 3164.00     4.053E-15
 3168.00     5.176E-15
 3172.00     6.048E-15
 3176.00     4.986E-15
 3180.00     3.974E-15
 3184.00     4.930E-15
 3188.00     4.590E-15
 3192.00     5.800E-15
 3196.00     7.093E-15
 3200.00     7.955E-15
 3204.00     8.332E-15
 3208.00     7.259E-15
 3212.00     6.639E-15
 3216.00     6.019E-15
 3220.00     1.116E-14
 3224.00     1.286E-14
 3228.00     9.842E-15
 3232.00     5.218E-15
 3236.00     5.967E-15
 3240.00     6.508E-15
 3244.00     7.351E-15
 3248.00     1.089E-14
 3252.00     6.290E-15
 3256.00     6.620E-15
 3260.00     8.742E-15
 3264.00     7.222E-15
 3268.00     8.764E-15
 3272.00     9.586E-15
 3276.00     9.253E-15
 3280.00     9.710E-15
 3284.00     1.120E-14
 3288.00     1.143E-14
 3292.00     1.198E-14
 3296.00     1.218E-14
 3300.00     1.242E-14
 3304.00     1.272E-14
 3308.00     1.265E-14
 3312.00     1.208E-14
 3316.00     1.188E-14
 3320.00     1.183E-14
 3324.00     1.134E-14
 3328.00     1.144E-14
 3332.00     1.122E-14
 3336.00     1.088E-14
 3340.00     1.122E-14
 3344.00     1.141E-14
 3348.00     1.114E-14
 3352.00     1.101E-14
 3356.00     1.117E-14
 3360.00     1.087E-14
 3364.00     1.027E-14
 3368.00     1.007E-14
 3372.00     1.015E-14
 3376.00     1.006E-14
 3380.00     1.005E-14
 3384.00     1.052E-14
 3388.00     1.098E-14
 3392.00     1.101E-14
 3396.00     1.123E-14
 3400.00     1.203E-14
 3404.00     1.238E-14
 3408.00     1.196E-14
 3412.00     1.189E-14
 3416.00     1.191E-14
 3420.00     1.172E-14
 3424.00     1.151E-14
 3428.00     1.195E-14
 3432.00     1.228E-14
 3436.00     1.205E-14
 3440.00     1.182E-14
 3444.00     1.155E-14
 3448.00     1.120E-14
 3452.00     1.132E-14
 3456.00     1.156E-14
 3460.00     1.146E-14
 3464.00     1.149E-14
 3468.00     1.162E-14
 3472.00     1.191E-14
 3476.00     1.184E-14
 3480.00     1.189E-14
 3484.00     1.189E-14
 3488.00     1.181E-14
 3492.00     1.220E-14
 3496.00     1.235E-14
 3500.00     1.196E-14
 3504.00     1.189E-14
 3508.00     1.255E-14
 3512.00     1.301E-14
 3516.00     1.299E-14
 3520.00     1.289E-14
 3524.00     1.267E-14
 3528.00     1.244E-14
 3532.00     1.277E-14
 3536.00     1.311E-14
 3540.00     1.326E-14
 3544.00     1.336E-14
 3548.00     1.351E-14
 3552.00     1.370E-14
 3556.00     1.323E-14
 3560.00     1.264E-14
 3564.00     1.241E-14
 3568.00     1.190E-14
 3572.00     1.112E-14
 3576.00     1.058E-14
 3580.00     1.005E-14
 3584.00     9.518E-15
 3588.00     9.638E-15
 3592.00     1.043E-14
 3596.00     1.119E-14
 3600.00     1.202E-14
 3604.00     1.268E-14
 3608.00     1.319E-14
 3612.00     1.347E-14
 3616.00     1.360E-14
 3620.00     1.381E-14
 3624.00     1.405E-14
 3628.00     1.448E-14
 3632.00     1.481E-14
 3636.00     1.475E-14
 3640.00     1.474E-14
 3644.00     1.499E-14
 3648.00     1.521E-14
 3652.00     1.536E-14
 3656.00     1.581E-14
 3660.00     1.641E-14
 3664.00     1.734E-14
 3668.00     1.777E-14
 3672.00     1.846E-14
 3676.00     1.725E-14
 3680.00     1.701E-14
 3684.00     1.605E-14
 3688.00     1.617E-14
 3692.00     1.736E-14
 3696.00     1.725E-14
 3700.00     1.796E-14
 3704.00     1.729E-14
 3708.00     1.747E-14
 3712.00     1.679E-14
 3716.00     1.800E-14
 3720.00     1.556E-14
 3724.00     1.612E-14
 3728.00     1.676E-14
 3732.00     1.566E-14
 3736.00     1.467E-14
 3740.00     1.282E-14
 3744.00     1.304E-14
 3748.00     1.288E-14
 3752.00     1.295E-14
 3756.00     1.444E-14
 3760.00     1.502E-14
 3764.00     1.575E-14
 3768.00     1.396E-14
 3772.00     1.571E-14
 3776.00     1.781E-14
 3780.00     1.838E-14
 3784.00     1.840E-14
 3788.00     1.707E-14
 3792.00     1.595E-14
 3796.00     1.581E-14
 3800.00     1.454E-14
 3804.00     1.564E-14
 3808.00     1.703E-14
 3812.00     1.561E-14
 3816.00     1.433E-14
 3820.00     1.272E-14
 3824.00     1.139E-14
 3828.00     1.016E-14
 3832.00     9.542E-15
 3836.00     9.067E-15
 3840.00     1.022E-14
 3844.00     1.178E-14
 3848.00     1.202E-14
 3852.00     1.303E-14
 3856.00     1.254E-14
 3860.00     1.244E-14
 3864.00     1.349E-14
 3868.00     1.337E-14
 3872.00     1.319E-14
 3876.00     1.351E-14
 3880.00     1.332E-14
 3884.00     1.474E-14
 3888.00     1.600E-14
 3892.00     1.708E-14
 3896.00     1.817E-14
 3900.00     1.826E-14
 3904.00     1.859E-14
 3908.00     1.916E-14
 3912.00     2.027E-14
 3916.00     1.994E-14
 3920.00     1.823E-14
 3924.00     1.569E-14
 3928.00     1.227E-14
 3932.00     1.029E-14
 3936.00     1.002E-14
 3940.00     1.216E-14
 3944.00     1.508E-14
 3948.00     1.788E-14
 3952.00     1.901E-14
 3956.00     1.891E-14
 3960.00     1.528E-14
 3964.00     1.266E-14
 3968.00     1.136E-14
 3972.00     1.279E-14
 3976.00     1.718E-14
 3980.00     2.127E-14
 3984.00     2.391E-14
 3988.00     2.484E-14
 3992.00     2.570E-14
 3996.00     2.721E-14
 4000.00     2.784E-14
 4004.00     2.839E-14
 4008.00     2.969E-14
 4012.00     2.884E-14
 4016.00     3.113E-14
 4020.00     2.999E-14
 4024.00     2.935E-14
 4028.00     2.749E-14
 4032.00     2.833E-14
 4036.00     2.799E-14
 4040.00     2.829E-14
 4044.00     2.750E-14
 4048.00     2.730E-14
 4052.00     2.731E-14
 4056.00     2.845E-14
 4060.00     2.711E-14
 4064.00     2.675E-14
 4068.00     2.685E-14
 4072.00     2.718E-14
 4076.00     2.747E-14
 4080.00     2.843E-14
 4084.00     2.995E-14
 4088.00     3.042E-14
 4092.00     3.072E-14
 4096.00     2.912E-14
 4100.00     2.693E-14
 4104.00     2.574E-14
 4108.00     2.813E-14
 4112.00     2.800E-14
 4116.00     2.868E-14
 4120.00     2.825E-14
 4124.00     2.888E-14
 4128.00     2.864E-14
 4132.00     2.803E-14
 4136.00     2.761E-14
 4140.00     2.697E-14
 4144.00     2.753E-14
 4148.00     2.755E-14
 4152.00     2.586E-14
 4156.00     2.677E-14
 4160.00     2.713E-14
 4164.00     2.772E-14
 4168.00     2.795E-14
 4172.00     2.631E-14
 4176.00     2.685E-14
 4180.00     2.664E-14
 4184.00     2.749E-14
 4188.00     2.736E-14
 4192.00     2.782E-14
 4196.00     2.742E-14
 4200.00     2.733E-14
 4204.00     2.829E-14
 4208.00     2.948E-14
 4212.00     3.009E-14
 4216.00     3.011E-14
 4220.00     2.987E-14
 4224.00     2.867E-14
 4228.00     2.749E-14
 4232.00     2.857E-14
 4236.00     3.037E-14
 4240.00     3.226E-14
 4244.00     3.288E-14
 4248.00     3.263E-14
 4252.00     3.201E-14
 4256.00     3.131E-14
 4260.00     3.266E-14
 4264.00     3.342E-14
 4268.00     3.192E-14
 4272.00     3.113E-14
 4276.00     2.999E-14
 4280.00     3.129E-14
 4284.00     3.170E-14
 4288.00     3.054E-14
 4292.00     2.882E-14
 4296.00     2.750E-14
 4300.00     2.538E-14
 4304.00     2.440E-14
 4308.00     2.486E-14
 4312.00     2.854E-14
 4316.00     3.225E-14
 4320.00     3.445E-14
 4324.00     3.533E-14
 4328.00     3.508E-14
 4332.00     3.634E-14
 4336.00     3.654E-14
 4340.00     3.610E-14
 4344.00     3.654E-14
 4348.00     3.662E-14
 4352.00     3.662E-14
 4356.00     3.724E-14
 4360.00     3.894E-14
 4364.00     3.928E-14
 4368.00     3.930E-14
 4372.00     3.723E-14
 4376.00     3.608E-14
 4380.00     3.449E-14
 4384.00     3.309E-14
 4388.00     3.338E-14
 4392.00     3.466E-14
 4396.00     3.580E-14
 4400.00     3.694E-14
 4404.00     3.533E-14
 4408.00     3.648E-14
 4412.00     3.716E-14
 4416.00     3.857E-14
 4420.00     3.891E-14
 4424.00     3.885E-14
 4428.00     3.878E-14
 4432.00     3.936E-14
 4436.00     3.904E-14
 4440.00     3.918E-14
 4444.00     4.023E-14
 4448.00     4.036E-14
 4452.00     4.044E-14
 4456.00     3.864E-14
 4460.00     3.740E-14
 4464.00     3.864E-14
 4468.00     4.015E-14
 4472.00     4.167E-14
 4476.00     4.260E-14
 4480.00     4.349E-14
 4484.00     4.357E-14
 4488.00     4.313E-14
 4492.00     4.302E-14
 4496.00     4.430E-14
 4500.00     4.488E-14
 4504.00     4.670E-14
 4508.00     4.752E-14
 4512.00     4.772E-14
 4516.00     4.664E-14
 4520.00     4.545E-14
 4524.00     4.313E-14
 4528.00     4.083E-14
 4532.00     4.045E-14
 4536.00     4.161E-14
 4540.00     4.323E-14
 4544.00     4.339E-14
 4548.00     4.340E-14
 4552.00     4.407E-14
 4556.00     4.593E-14
 4560.00     4.699E-14
 4564.00     4.734E-14
 4568.00     4.671E-14
 4572.00     4.676E-14
 4576.00     4.621E-14
 4580.00     4.578E-14
 4584.00     4.564E-14
 4588.00     4.616E-14
 4592.00     4.528E-14
 4596.00     4.575E-14
 4600.00     4.511E-14
 4604.00     4.619E-14
 4608.00     4.788E-14
 4612.00     4.862E-14
 4616.00     4.929E-14
 4620.00     4.880E-14
 4624.00     4.897E-14
 4628.00     4.875E-14
 4632.00     4.824E-14
 4636.00     4.814E-14
 4640.00     4.619E-14
 4644.00     4.424E-14
 4648.00     4.388E-14
 4652.00     4.474E-14
 4656.00     4.572E-14
 4660.00     4.538E-14
 4664.00     4.484E-14
 4668.00     4.376E-14
 4672.00     4.375E-14
 4676.00     4.420E-14
 4680.00     4.374E-14
 4684.00     4.405E-14
 4688.00     4.351E-14
 4692.00     4.429E-14
 4696.00     4.466E-14
 4700.00     4.364E-14
 4704.00     4.405E-14
 4708.00     4.342E-14
 4712.00     4.513E-14
 4716.00     4.687E-14
 4720.00     4.830E-14
 4724.00     4.798E-14
 4728.00     4.754E-14
 4732.00     4.669E-14
 4736.00     4.718E-14
 4740.00     4.829E-14
 4744.00     5.031E-14
 4748.00     4.990E-14
 4752.00     4.937E-14
 4756.00     5.003E-14
 4760.00     4.835E-14
 4764.00     4.805E-14
 4768.00     4.806E-14
 4772.00     4.799E-14
 4776.00     4.741E-14
 4780.00     4.858E-14
 4784.00     4.799E-14
 4788.00     4.843E-14
 4792.00     4.901E-14
 4796.00     5.033E-14
 4800.00     5.035E-14
 4804.00     4.970E-14
 4808.00     5.020E-14
 4812.00     5.088E-14
 4816.00     5.174E-14
 4820.00     5.112E-14
 4824.00     5.031E-14
 4828.00     4.903E-14
 4832.00     4.933E-14
 4836.00     4.835E-14
 4840.00     4.911E-14
 4844.00     4.935E-14
 4848.00     4.855E-14
 4852.00     4.729E-14
 4856.00     4.655E-14
 4860.00     4.545E-14
 4864.00     4.354E-14
 4868.00     4.440E-14
 4872.00     4.553E-14
 4876.00     4.599E-14
 4880.00     4.663E-14
 4884.00     4.624E-14
 4888.00     4.685E-14
 4892.00     4.806E-14
 4896.00     4.884E-14
 4900.00     4.992E-14
 4904.00     5.035E-14
 4908.00     4.981E-14
 4912.00     4.862E-14
 4916.00     4.795E-14
 4920.00     4.711E-14
 4924.00     4.802E-14
 4928.00     4.822E-14
 4932.00     4.974E-14
 4936.00     4.886E-14
 4940.00     5.023E-14
 4944.00     5.020E-14
 4948.00     5.103E-14
 4952.00     5.037E-14
 4956.00     5.038E-14
 4960.00     4.897E-14
 4964.00     4.828E-14
 4968.00     4.879E-14
 4972.00     4.810E-14
 4976.00     4.741E-14
 4980.00     4.645E-14
 4984.00     4.541E-14
 4988.00     4.541E-14
 4992.00     4.513E-14
 4996.00     4.618E-14
 5000.00     4.648E-14
 5004.00     4.606E-14
 5008.00     4.458E-14
 5012.00     4.364E-14
 5016.00     4.345E-14
 5020.00     4.453E-14
 5024.00     4.465E-14
 5028.00     4.500E-14
 5032.00     4.525E-14
 5036.00     4.480E-14
 5040.00     4.481E-14
 5044.00     4.459E-14
 5048.00     4.539E-14
 5052.00     4.609E-14
 5056.00     4.747E-14
 5060.00     4.749E-14
 5064.00     4.791E-14
 5068.00     4.641E-14
 5072.00     4.568E-14
 5076.00     4.582E-14
 5080.00     4.497E-14
 5084.00     4.399E-14
 5088.00     4.542E-14
 5092.00     4.604E-14
 5096.00     4.542E-14
 5100.00     4.483E-14
 5104.00     4.425E-14
 5108.00     4.520E-14
 5112.00     4.546E-14
 5116.00     4.587E-14
 5120.00     4.634E-14
 5124.00     4.502E-14
 5128.00     4.359E-14
 5132.00     4.488E-14
 5136.00     4.534E-14
 5140.00     4.430E-14
 5144.00     4.446E-14
 5148.00     4.374E-14
 5152.00     4.564E-14
 5156.00     4.498E-14
 5160.00     4.331E-14
 5164.00     4.103E-14
 5168.00     3.832E-14
 5172.00     3.601E-14
 5176.00     3.604E-14
 5180.00     3.681E-14
 5184.00     3.856E-14
 5188.00     4.027E-14
 5192.00     4.271E-14
 5196.00     4.546E-14
 5200.00     4.604E-14
 5204.00     4.438E-14
 5208.00     4.396E-14
 5212.00     4.515E-14
 5216.00     4.730E-14
 5220.00     4.919E-14
 5224.00     4.877E-14
 5228.00     4.857E-14
 5232.00     4.948E-14
 5236.00     5.029E-14
 5240.00     5.109E-14
 5244.00     5.204E-14
 5248.00     5.145E-14
 5252.00     5.076E-14
 5256.00     5.033E-14
 5260.00     4.793E-14
 5264.00     4.726E-14
 5268.00     4.615E-14
 5272.00     4.707E-14
 5276.00     4.879E-14
 5280.00     5.196E-14
 5284.00     5.303E-14
 5288.00     5.474E-14
 5292.00     5.379E-14
 5296.00     5.427E-14
 5300.00     5.332E-14
 5304.00     5.439E-14
 5308.00     5.605E-14
 5312.00     5.705E-14
 5316.00     5.673E-14
 5320.00     5.489E-14
 5324.00     5.388E-14
 5328.00     5.214E-14
 5332.00     5.133E-14
 5336.00     5.243E-14
 5340.00     5.283E-14
 5344.00     5.307E-14
 5348.00     5.470E-14
 5352.00     5.552E-14
 5356.00     5.565E-14
 5360.00     5.631E-14
 5364.00     5.563E-14
 5368.00     5.517E-14
 5372.00     5.445E-14
 5376.00     5.369E-14
 5380.00     5.454E-14
 5384.00     5.511E-14
 5388.00     5.426E-14
 5392.00     5.281E-14
 5396.00     5.249E-14
 5400.00     5.072E-14
 5404.00     5.164E-14
 5408.00     5.103E-14
 5412.00     5.214E-14
 5416.00     5.273E-14
 5420.00     5.427E-14
 5424.00     5.474E-14
 5428.00     5.407E-14
 5432.00     5.302E-14
 5436.00     5.249E-14
 5440.00     5.407E-14
 5444.00     5.381E-14
 5448.00     5.320E-14
 5452.00     5.237E-14
 5456.00     2.471E-14
 5460.00     2.485E-14
 5464.00     5.199E-14
 5468.00     5.222E-14
 5472.00     1.266E-14
 5476.00     1.235E-14
 5480.00     5.014E-14
 5484.00     5.003E-14
 5488.00     3.937E-14
 5492.00     3.887E-14
 5496.00     5.253E-14
 5500.00     5.127E-14
 5504.00     5.191E-14
 5508.00     5.192E-14
 5512.00     5.267E-14
 5516.00     5.252E-14
 5520.00     5.170E-14
 5524.00     5.246E-14
 5528.00     5.529E-14
 5532.00     5.549E-14
 5536.00     5.411E-14
 5540.00     5.440E-14
 5544.00     5.327E-14
 5548.00     5.412E-14
 5552.00     5.653E-14
 5556.00     5.556E-14
 5560.00     5.476E-14
 5564.00     5.440E-14
 5568.00     5.330E-14
 5572.00     5.392E-14
 5576.00     5.363E-14
 5580.00     5.247E-14
 5584.00     5.259E-14
 5588.00     5.164E-14
 5592.00     5.089E-14
 5596.00     5.187E-14
 5600.00     5.259E-14
 5604.00     5.451E-14
 5608.00     5.380E-14
 5612.00     5.455E-14
 5616.00     5.515E-14
 5620.00     5.362E-14
 5624.00     5.318E-14
 5628.00     5.228E-14
 5632.00     5.176E-14
 5636.00     5.231E-14
 5640.00     5.365E-14
 5644.00     5.375E-14
 5648.00     5.360E-14
 5652.00     5.275E-14
 5656.00     5.275E-14
 5660.00     5.360E-14
 5664.00     5.447E-14
 5668.00     5.440E-14
 5672.00     5.596E-14
 5676.00     5.503E-14
 5680.00     5.436E-14
 5684.00     5.535E-14
 5688.00     5.395E-14
 5692.00     5.428E-14
 5696.00     5.490E-14
 5700.00     5.483E-14
 5704.00     5.377E-14
 5708.00     5.340E-14
 5712.00     5.453E-14
 5716.00     5.544E-14
 5720.00     5.508E-14
 5724.00     5.524E-14
 5728.00     5.714E-14
 5732.00     5.678E-14
 5736.00     5.714E-14
 5740.00     5.592E-14
 5744.00     5.598E-14
 5748.00     5.415E-14
 5752.00     5.565E-14
 5756.00     5.593E-14
 5760.00     5.602E-14
 5764.00     5.681E-14
 5768.00     5.611E-14
 5772.00     5.623E-14
 5776.00     5.463E-14
 5780.00     5.494E-14
 5784.00     5.427E-14
 5788.00     5.432E-14
 5792.00     5.586E-14
 5796.00     5.612E-14
 5800.00     5.627E-14
 5804.00     5.650E-14
 5808.00     5.615E-14
 5812.00     5.613E-14
 5816.00     5.591E-14
 5820.00     5.790E-14
 5824.00     5.730E-14
 5828.00     5.817E-14
 5832.00     5.637E-14
 5836.00     5.689E-14
 5840.00     5.667E-14
 5844.00     5.617E-14
 5848.00     5.552E-14
 5852.00     5.399E-14
 5856.00     5.397E-14
 5860.00     5.388E-14
 5864.00     5.488E-14
 5868.00     5.414E-14
 5872.00     5.323E-14
 5876.00     5.081E-14
 5880.00     4.927E-14
 5884.00     4.767E-14
 5888.00     4.230E-14
 5892.00     3.972E-14
 5896.00     4.097E-14
 5900.00     4.380E-14
 5904.00     4.679E-14
 5908.00     5.060E-14
 5912.00     5.096E-14
 5916.00     5.115E-14
 5920.00     5.335E-14
 5924.00     5.415E-14
 5928.00     5.472E-14
 5932.00     5.401E-14
 5936.00     5.337E-14
 5940.00     5.387E-14
 5944.00     5.433E-14
 5948.00     5.484E-14
 5952.00     5.416E-14
 5956.00     5.281E-14
 5960.00     5.312E-14
 5964.00     5.369E-14
 5968.00     5.552E-14
 5972.00     5.617E-14
 5976.00     5.551E-14
 5980.00     5.361E-14
 5984.00     5.434E-14
 5988.00     5.367E-14
 5992.00     5.422E-14
 5996.00     5.583E-14
 6000.00     5.454E-14
 6004.00     5.536E-14
 6008.00     5.374E-14
 6012.00     5.396E-14
 6016.00     5.359E-14
 6020.00     5.456E-14
 6024.00     5.588E-14
 6028.00     5.637E-14
 6032.00     5.706E-14
 6036.00     5.801E-14
 6040.00     5.713E-14
 6044.00     5.718E-14
 6048.00     5.845E-14
 6052.00     5.808E-14
 6056.00     5.752E-14
 6060.00     5.834E-14
 6064.00     5.829E-14
 6068.00     5.827E-14
 6072.00     5.729E-14
 6076.00     5.689E-14
 6080.00     5.774E-14
 6084.00     5.807E-14
 6088.00     5.699E-14
 6092.00     5.728E-14
 6096.00     5.657E-14
 6100.00     5.709E-14
 6104.00     5.666E-14
 6108.00     5.747E-14
 6112.00     5.704E-14
 6116.00     5.905E-14
 6120.00     5.923E-14
 6124.00     5.591E-14
 6128.00     5.646E-14
 6132.00     5.623E-14
 6136.00     5.766E-14
 6140.00     5.770E-14
 6144.00     5.713E-14
 6148.00     5.769E-14
 6152.00     5.552E-14
 6156.00     5.500E-14
 6160.00     5.544E-14
 6164.00     5.340E-14
 6168.00     5.204E-14
 6172.00     5.404E-14
 6176.00     5.514E-14
 6180.00     5.534E-14
 6184.00     5.624E-14
 6188.00     5.461E-14
 6192.00     5.519E-14
 6196.00     5.561E-14
 6200.00     5.499E-14
 6204.00     5.631E-14
 6208.00     5.433E-14
 6212.00     5.490E-14
 6216.00     5.393E-14
 6220.00     5.356E-14
 6224.00     5.321E-14
 6228.00     5.077E-14
 6232.00     5.303E-14
 6236.00     5.342E-14
 6240.00     5.129E-14
 6244.00     4.997E-14
 6248.00     5.003E-14
 6252.00     5.014E-14
 6256.00     5.135E-14
 6260.00     5.254E-14
 6264.00     5.343E-14
 6268.00     5.428E-14
 6272.00     5.325E-14
 6276.00     5.333E-14
 6280.00     5.382E-14
 6284.00     5.456E-14
 6288.00     5.492E-14
 6292.00     5.414E-14
 6296.00     5.430E-14
 6300.00     5.357E-14
 6304.00     5.433E-14
 6308.00     5.352E-14
 6312.00     5.335E-14
 6316.00     5.379E-14
 6320.00     5.477E-14
 6324.00     5.520E-14
 6328.00     5.545E-14
 6332.00     5.566E-14
 6336.00     5.582E-14
 6340.00     5.527E-14
 6344.00     5.522E-14
 6348.00     5.499E-14
 6352.00     5.487E-14
 6356.00     5.398E-14
 6360.00     5.392E-14
 6364.00     5.484E-14
 6368.00     5.570E-14
 6372.00     5.634E-14
 6376.00     5.692E-14
 6380.00     5.747E-14
 6384.00     5.676E-14
 6388.00     5.632E-14
 6392.00     5.634E-14
 6396.00     5.676E-14
 6400.00     5.664E-14
 6404.00     5.640E-14
 6408.00     5.637E-14
 6412.00     5.615E-14
 6416.00     5.559E-14
 6420.00     5.640E-14
 6424.00     5.672E-14
 6428.00     5.716E-14
 6432.00     5.747E-14
 6436.00     5.758E-14
 6440.00     5.720E-14
 6444.00     5.668E-14
 6448.00     5.666E-14
 6452.00     5.678E-14
 6456.00     5.696E-14
 6460.00     5.733E-14
 6464.00     5.797E-14
 6468.00     5.798E-14
 6472.00     5.748E-14
 6476.00     5.771E-14
 6480.00     5.718E-14
 6484.00     5.651E-14
 6488.00     5.564E-14
 6492.00     5.470E-14
 6496.00     5.451E-14
 6500.00     5.485E-14
 6504.00     5.581E-14
 6508.00     5.668E-14
 6512.00     5.717E-14
 6516.00     5.747E-14
 6520.00     5.742E-14
 6524.00     5.708E-14
 6528.00     5.791E-14
 6532.00     5.769E-14
 6536.00     5.791E-14
 6540.00     5.776E-14
 6544.00     5.765E-14
 6548.00     5.712E-14
 6552.00     5.638E-14
 6556.00     5.500E-14
 6560.00     5.425E-14
 6564.00     5.448E-14
 6568.00     5.511E-14
 6572.00     5.573E-14
 6576.00     5.756E-14
 6580.00     5.847E-14
 6584.00     5.843E-14
 6588.00     5.810E-14
 6592.00     5.625E-14
 6596.00     5.600E-14
 6600.00     5.523E-14
 6604.00     5.564E-14
 6608.00     5.615E-14
 6612.00     5.570E-14
 6616.00     5.585E-14
 6620.00     5.570E-14
 6624.00     5.551E-14
 6628.00     5.511E-14
 6632.00     5.468E-14
 6636.00     5.464E-14
 6640.00     5.467E-14
 6644.00     5.494E-14
 6648.00     5.496E-14
 6652.00     5.461E-14
 6656.00     5.429E-14
 6660.00     5.442E-14
 6664.00     5.419E-14
 6668.00     5.410E-14
 6672.00     5.418E-14
 6676.00     5.384E-14
 6680.00     5.434E-14
 6684.00     5.412E-14
 6688.00     5.418E-14
 6692.00     5.376E-14
 6696.00     5.401E-14
 6700.00     5.375E-14
 6704.00     5.403E-14
 6708.00     5.475E-14
 6712.00     5.436E-14
 6716.00     5.430E-14
 6720.00     5.385E-14
 6724.00     5.488E-14
 6728.00     5.507E-14
 6732.00     5.475E-14
 6736.00     5.501E-14
 6740.00     5.419E-14
 6744.00     5.385E-14
 6748.00     5.357E-14
 6752.00     5.354E-14
 6756.00     5.456E-14
 6760.00     5.440E-14
 6764.00     5.463E-14
 6768.00     5.467E-14
 6772.00     5.465E-14
 6776.00     5.507E-14
 6780.00     5.462E-14
 6784.00     5.387E-14
 6788.00     5.415E-14
 6792.00     5.422E-14
 6796.00     5.417E-14
 6800.00     5.422E-14
 6804.00     5.441E-14
 6808.00     5.461E-14
 6812.00     5.453E-14
 6816.00     5.450E-14
 6820.00     5.452E-14
 6824.00     5.463E-14
 6828.00     5.436E-14
 6832.00     5.453E-14
 6836.00     5.458E-14
 6840.00     5.437E-14
 6844.00     5.475E-14
 6848.00     5.419E-14
 6852.00     5.452E-14
 6856.00     5.455E-14
 6860.00     5.475E-14
 6864.00     5.444E-14
 6868.00     5.490E-14
 6872.00     5.530E-14
 6876.00     5.523E-14
 6880.00     5.520E-14
 6884.00     5.537E-14
 6888.00     5.604E-14
 6892.00     5.629E-14
 6896.00     5.696E-14
 6900.00     5.677E-14
 6904.00     5.662E-14
 6908.00     5.673E-14
 6912.00     5.655E-14
 6916.00     5.635E-14
 6920.00     5.604E-14
 6924.00     5.598E-14
 6928.00     5.663E-14
 6932.00     5.658E-14
 6936.00     5.656E-14
 6940.00     5.636E-14
 6944.00     5.622E-14
 6948.00     5.639E-14
 6952.00     5.655E-14
 6956.00     5.654E-14
 6960.00     5.663E-14
 6964.00     5.702E-14
 6968.00     5.652E-14
 6972.00     5.689E-14
 6976.00     5.733E-14
 6980.00     5.697E-14
 6984.00     5.682E-14
 6988.00     5.686E-14
 6992.00     5.726E-14
 6996.00     5.695E-14
 7000.00     5.694E-14
 7004.00     5.669E-14
 7008.00     5.700E-14
 7012.00     5.667E-14
 7016.00     5.722E-14
 7020.00     5.673E-14
 7024.00     5.665E-14
 7028.00     5.704E-14
 7032.00     5.759E-14
 7036.00     5.810E-14
 7040.00     5.799E-14
 7044.00     5.812E-14
 7048.00     5.721E-14
 7052.00     5.610E-14
 7056.00     5.482E-14
 7060.00     5.398E-14
 7064.00     5.350E-14
 7068.00     5.389E-14
 7072.00     5.339E-14
 7076.00     5.326E-14
 7080.00     5.282E-14
 7084.00     5.214E-14
 7088.00     5.200E-14
 7092.00     5.112E-14
 7096.00     5.183E-14
 7100.00     5.170E-14
 7104.00     5.125E-14
 7108.00     5.132E-14
 7112.00     5.134E-14
 7116.00     5.132E-14
 7120.00     5.081E-14
 7124.00     5.023E-14
 7128.00     4.991E-14
 7132.00     5.074E-14
 7136.00     4.926E-14
 7140.00     4.983E-14
 7144.00     5.009E-14
 7148.00     5.059E-14
 7152.00     5.058E-14
 7156.00     5.078E-14
 7160.00     5.169E-14
 7164.00     5.073E-14
 7168.00     5.132E-14
 7172.00     5.122E-14
 7176.00     5.078E-14
 7180.00     5.086E-14
 7184.00     5.050E-14
 7188.00     5.144E-14
 7192.00     5.087E-14
 7196.00     5.114E-14
 7200.00     5.102E-14
 7204.00     5.148E-14
 7208.00     5.114E-14
 7212.00     5.098E-14
 7216.00     5.258E-14
 7220.00     5.252E-14
 7224.00     5.257E-14
 7228.00     5.349E-14
 7232.00     5.341E-14
 7236.00     5.352E-14
 7240.00     5.416E-14
 7244.00     5.463E-14
 7248.00     5.403E-14
 7252.00     5.342E-14
 7256.00     5.399E-14
 7260.00     5.443E-14
 7264.00     5.422E-14
 7268.00     5.461E-14
 7272.00     5.455E-14
 7276.00     5.405E-14
 7280.00     5.418E-14
 7284.00     5.403E-14
 7288.00     5.401E-14
 7292.00     5.433E-14
 7296.00     5.455E-14
 7300.00     5.492E-14
 7304.00     5.559E-14
 7308.00     5.645E-14
 7312.00     5.581E-14
 7316.00     5.570E-14
 7320.00     5.574E-14
 7324.00     5.617E-14
 7328.00     5.635E-14
 7332.00     5.685E-14
 7336.00     5.734E-14
 7340.00     5.707E-14
 7344.00     5.718E-14
 7348.00     5.660E-14
 7352.00     5.631E-14
 7356.00     5.598E-14
 7360.00     5.620E-14
 7364.00     5.706E-14
 7368.00     5.760E-14
 7372.00     5.824E-14
 7376.00     5.816E-14
 7380.00     5.797E-14
 7384.00     5.816E-14
 7388.00     5.751E-14
 7392.00     5.766E-14
 7396.00     5.780E-14
 7400.00     5.784E-14
 7404.00     5.788E-14
 7408.00     5.797E-14
 7412.00     5.755E-14
 7416.00     5.741E-14
 7420.00     5.803E-14
 7424.00     5.832E-14
 7428.00     5.825E-14
 7432.00     5.882E-14
 7436.00     5.920E-14
 7440.00     5.880E-14
 7444.00     5.933E-14
 7448.00     5.844E-14
 7452.00     5.838E-14
 7456.00     5.935E-14
 7460.00     5.932E-14
 7464.00     5.930E-14
 7468.00     5.972E-14
 7472.00     5.985E-14
 7476.00     5.935E-14
 7480.00     5.972E-14
 7484.00     5.945E-14
 7488.00     5.923E-14
 7492.00     5.933E-14
 7496.00     5.947E-14
 7500.00     5.985E-14
 7504.00     5.964E-14
 7508.00     5.959E-14
 7512.00     5.966E-14
 7516.00     5.970E-14
 7520.00     5.982E-14
 7524.00     5.973E-14
 7528.00     5.979E-14
 7532.00     5.961E-14
 7536.00     5.950E-14
 7540.00     5.951E-14
 7544.00     5.931E-14
 7548.00     5.897E-14
 7552.00     5.866E-14
 7556.00     5.895E-14
 7560.00     5.883E-14
 7564.00     5.873E-14
 7568.00     5.861E-14
 7572.00     5.879E-14
 7576.00     5.762E-14
 7580.00     5.822E-14
 7584.00     5.737E-14
 7588.00     5.752E-14
 7592.00     5.737E-14
 7596.00     5.733E-14
 7600.00     5.677E-14
 7604.00     5.714E-14
 7608.00     5.676E-14
 7612.00     5.707E-14
 7616.00     5.746E-14
 7620.00     5.684E-14
 7624.00     5.653E-14
 7628.00     5.633E-14
 7632.00     5.716E-14
 7636.00     5.690E-14
 7640.00     5.692E-14
 7644.00     5.644E-14
 7648.00     5.598E-14
 7652.00     5.545E-14
 7656.00     5.432E-14
 7660.00     5.380E-14
 7664.00     5.344E-14
 7668.00     5.331E-14
 7672.00     5.349E-14
 7676.00     5.454E-14
 7680.00     5.471E-14
 7684.00     5.409E-14
 7688.00     5.444E-14
 7692.00     5.457E-14
 7696.00     5.414E-14
 7700.00     5.412E-14
 7704.00     5.388E-14
 7708.00     5.404E-14
 7712.00     5.410E-14
 7716.00     5.393E-14
 7720.00     5.425E-14
 7724.00     5.468E-14
 7728.00     5.511E-14
 7732.00     5.515E-14
 7736.00     5.574E-14
 7740.00     5.568E-14
 7744.00     5.513E-14
 7748.00     5.475E-14
 7752.00     5.485E-14
 7756.00     5.500E-14
 7760.00     5.537E-14
 7764.00     5.531E-14
 7768.00     5.578E-14
 7772.00     5.603E-14
 7776.00     5.593E-14
 7780.00     5.633E-14
 7784.00     5.498E-14
 7788.00     5.547E-14
 7792.00     5.587E-14
 7796.00     5.595E-14
 7800.00     5.584E-14
 7804.00     5.577E-14
 7808.00     5.642E-14
 7812.00     5.658E-14
 7816.00     5.657E-14
 7820.00     5.679E-14
 7824.00     5.653E-14
 7828.00     5.642E-14
 7832.00     5.553E-14
 7836.00     5.572E-14
 7840.00     5.530E-14
 7844.00     5.557E-14
 7848.00     5.535E-14
 7852.00     5.622E-14
 7856.00     5.600E-14
 7860.00     5.626E-14
 7864.00     5.632E-14
 7868.00     5.631E-14
 7872.00     5.509E-14
 7876.00     5.512E-14
 7880.00     5.530E-14
 7884.00     5.528E-14
 7888.00     5.485E-14
 7892.00     5.485E-14
 7896.00     5.477E-14
 7900.00     5.470E-14
 7904.00     5.433E-14
 7908.00     5.375E-14
 7912.00     5.344E-14
 7916.00     5.342E-14
 7920.00     5.275E-14
 7924.00     5.287E-14
 7928.00     5.349E-14
 7932.00     5.282E-14
 7936.00     5.316E-14
 7940.00     5.356E-14
 7944.00     5.356E-14
 7948.00     5.328E-14
 7952.00     5.431E-14
 7956.00     5.415E-14
 7960.00     5.492E-14
 7964.00     5.556E-14
 7968.00     5.575E-14
 7972.00     5.620E-14
 7976.00     5.598E-14
 7980.00     5.600E-14
 7984.00     5.576E-14
 7988.00     5.601E-14
 7992.00     5.597E-14
 7996.00     5.606E-14
 8000.00     5.653E-14
 8004.00     5.671E-14
 8008.00     5.738E-14
 8012.00     5.784E-14
 8016.00     5.786E-14
 8020.00     5.755E-14
 8024.00     5.746E-14
 8028.00     5.777E-14
 8032.00     5.774E-14
 8036.00     5.821E-14
 8040.00     5.825E-14
 8044.00     5.822E-14
 8048.00     5.783E-14
 8052.00     5.723E-14
 8056.00     5.691E-14
 8060.00     5.696E-14
 8064.00     5.623E-14
 8068.00     5.684E-14
 8072.00     5.660E-14
 8076.00     5.631E-14
 8080.00     5.529E-14
 8084.00     5.490E-14
 8088.00     5.521E-14
 8092.00     5.513E-14
 8096.00     5.449E-14
 8100.00     5.540E-14
 8104.00     5.605E-14
 8108.00     5.630E-14
 8112.00     5.612E-14
 8116.00     5.684E-14
 8120.00     5.719E-14
 8124.00     5.848E-14
 8128.00     5.881E-14
 8132.00     5.909E-14
 8136.00     5.902E-14
 8140.00     5.931E-14
 8144.00     5.942E-14
 8148.00     5.859E-14
 8152.00     5.832E-14
 8156.00     5.941E-14
 8160.00     6.057E-14
 8164.00     6.071E-14
 8168.00     6.040E-14
 8172.00     5.972E-14
 8176.00     5.886E-14
 8180.00     5.796E-14
 8184.00     5.782E-14
 8188.00     5.616E-14
 8192.00     5.580E-14
 8196.00     5.605E-14
 8200.00     5.670E-14
 8204.00     5.627E-14
 8208.00     5.615E-14
 8212.00     5.697E-14
 8216.00     5.787E-14
 8220.00     5.801E-14
 8224.00     5.843E-14
 8228.00     5.850E-14
 8232.00     5.809E-14
 8236.00     5.801E-14
 8240.00     5.816E-14
 8244.00     5.863E-14
 8248.00     5.865E-14
 8252.00     5.843E-14
 8256.00     5.907E-14
 8260.00     6.005E-14
 8264.00     6.068E-14
 8268.00     5.881E-14
 8272.00     5.808E-14
 8276.00     5.819E-14
 8280.00     5.758E-14
 8284.00     5.751E-14
 8288.00     5.745E-14
 8292.00     5.692E-14
 8296.00     5.668E-14
 8300.00     5.611E-14
 8304.00     5.560E-14
 8308.00     5.550E-14
 8312.00     5.539E-14
 8316.00     5.576E-14
 8320.00     5.583E-14
 8324.00     5.556E-14
 8328.00     5.526E-14
 8332.00     5.529E-14
 8336.00     5.492E-14
 8340.00     5.515E-14
 8344.00     5.530E-14
 8348.00     5.555E-14
 8352.00     5.569E-14
 8356.00     5.486E-14
 8360.00     5.556E-14
 8364.00     5.574E-14
 8368.00     5.532E-14
 8372.00     5.562E-14
 8376.00     5.511E-14
 8380.00     5.484E-14
 8384.00     5.446E-14
 8388.00     5.511E-14
 8392.00     5.519E-14
 8396.00     5.595E-14
 8400.00     5.600E-14
 8404.00     5.644E-14
 8408.00     5.631E-14
 8412.00     5.597E-14
 8416.00     5.570E-14
 8420.00     5.544E-14
 8424.00     5.515E-14
 8428.00     5.447E-14
 8432.00     5.393E-14
 8436.00     5.349E-14
 8440.00     5.357E-14
 8444.00     5.387E-14
 8448.00     5.361E-14
 8452.00     5.369E-14
 8456.00     5.386E-14
 8460.00     5.391E-14
 8464.00     5.357E-14
 8468.00     5.359E-14
 8472.00     5.353E-14
 8476.00     5.406E-14
 8480.00     5.387E-14
 8484.00     5.359E-14
 8488.00     5.271E-14
 8492.00     5.250E-14
 8496.00     5.180E-14
 8500.00     5.168E-14
 8504.00     5.203E-14
 8508.00     5.245E-14
 8512.00     5.311E-14
 8516.00     5.298E-14
 8520.00     5.311E-14
 8524.00     5.227E-14
 8528.00     5.084E-14
 8532.00     4.882E-14
 8536.00     4.780E-14
 8540.00     4.802E-14
 8544.00     4.861E-14
 8548.00     5.023E-14
 8552.00     5.194E-14
 8556.00     5.360E-14
 8560.00     5.449E-14
 8564.00     5.535E-14
 8568.00     5.580E-14
 8572.00     5.529E-14
 8576.00     5.587E-14
 8580.00     5.577E-14
 8584.00     5.631E-14
 8588.00     5.624E-14
 8592.00     5.667E-14
 8596.00     5.657E-14
 8600.00     5.642E-14
 8604.00     5.659E-14
 8608.00     5.712E-14
 8612.00     5.708E-14
 8616.00     5.694E-14
 8620.00     5.731E-14
 8624.00     5.726E-14
 8628.00     5.770E-14
 8632.00     5.763E-14
 8636.00     5.770E-14
 8640.00     5.710E-14
 8644.00     5.649E-14
 8648.00     5.590E-14
 8652.00     5.419E-14
 8656.00     5.265E-14
 8660.00     5.172E-14
 8664.00     5.236E-14
 8668.00     5.314E-14
 8672.00     5.395E-14
 8676.00     5.553E-14
 8680.00     5.590E-14
 8684.00     5.540E-14
 8688.00     5.608E-14
 8692.00     5.685E-14
 8696.00     5.744E-14
 8700.00     5.743E-14
 8704.00     5.766E-14
 8708.00     5.805E-14
 8712.00     5.809E-14
 8716.00     5.855E-14
 8720.00     5.852E-14
 8724.00     5.887E-14
 8728.00     5.847E-14
 8732.00     5.839E-14
 8736.00     5.850E-14
 8740.00     5.833E-14
 8744.00     5.889E-14
 8748.00     5.806E-14
 8752.00     5.863E-14
 8756.00     5.864E-14
 8760.00     5.930E-14
 8764.00     5.867E-14
 8768.00     5.915E-14
 8772.00     5.902E-14
 8776.00     5.938E-14
 8780.00     5.930E-14
 8784.00     5.881E-14
 8788.00     5.866E-14
 8792.00     5.874E-14
 8796.00     5.912E-14
 8800.00     5.849E-14
 8804.00     5.769E-14
 8808.00     5.708E-14
 8812.00     5.829E-14
 8816.00     5.876E-14
 8820.00     5.909E-14
 8824.00     5.897E-14
 8828.00     5.950E-14
 8832.00     6.022E-14
 8836.00     5.963E-14
 8840.00     5.922E-14
 8844.00     6.014E-14
 8848.00     6.008E-14
 8852.00     5.985E-14
 8856.00     5.951E-14
 8860.00     5.866E-14
 8864.00     5.826E-14
 8868.00     5.811E-14
 8872.00     5.721E-14
 8876.00     5.750E-14
 8880.00     5.666E-14
 8884.00     5.797E-14
 8888.00     5.836E-14
 8892.00     5.878E-14
 8896.00     5.955E-14
 8900.00     5.849E-14
 8904.00     5.802E-14
 8908.00     5.812E-14
 8912.00     5.910E-14
 8916.00     5.818E-14
 8920.00     5.781E-14
 8924.00     5.799E-14
 8928.00     5.856E-14
 8932.00     5.910E-14
 8936.00     5.944E-14
 8940.00     5.806E-14
 8944.00     5.762E-14
 8948.00     5.758E-14
 8952.00     5.875E-14
 8956.00     5.975E-14
 8960.00     5.869E-14
 8964.00     5.863E-14
 8968.00     5.847E-14
 8972.00     5.893E-14
 8976.00     5.897E-14
 8980.00     5.964E-14
 8984.00     5.943E-14
 8988.00     5.999E-14
 8992.00     6.043E-14
 8996.00     6.013E-14
 9000.00     5.893E-14
 9004.00     5.904E-14
 9008.00     5.875E-14
 9012.00     5.818E-14
 9016.00     5.803E-14
 9020.00     5.850E-14
 9024.00     5.936E-14
 9028.00     5.989E-14
 9032.00     6.023E-14
 9036.00     6.050E-14
 9040.00     6.118E-14
 9044.00     6.135E-14
 9048.00     6.021E-14
 9052.00     6.033E-14
 9056.00     6.121E-14
 9060.00     6.149E-14
 9064.00     6.103E-14
 9068.00     5.999E-14
 9072.00     6.055E-14
 9076.00     6.033E-14
 9080.00     6.014E-14
 9084.00     5.983E-14
 9088.00     5.888E-14
 9092.00     5.885E-14
 9096.00     5.941E-14
 9100.00     6.010E-14
 9104.00     5.963E-14
 9108.00     6.029E-14
 9112.00     5.954E-14
 9116.00     6.025E-14
 9120.00     6.123E-14
 9124.00     6.127E-14
 9128.00     6.176E-14
 9132.00     6.034E-14
 9136.00     5.995E-14
 9140.00     6.017E-14
 9144.00     5.923E-14
 9148.00     5.959E-14
 9152.00     5.878E-14
 9156.00     5.827E-14
 9160.00     5.866E-14
 9164.00     5.911E-14
 9168.00     5.919E-14
 9172.00     5.912E-14
 9176.00     5.958E-14
 9180.00     5.940E-14
 9184.00     5.864E-14
 9188.00     5.932E-14
 9192.00     5.836E-14
 9196.00     5.741E-14
 9200.00     5.653E-14
 9204.00     5.715E-14
 9208.00     5.609E-14
 9212.00     5.724E-14
 9216.00     5.744E-14
 9220.00     5.724E-14
 9224.00     5.704E-14
 9228.00     5.683E-14
 9232.00     5.525E-14
 9236.00     5.478E-14
 9240.00     5.520E-14
 9244.00     5.534E-14
 9248.00     5.601E-14
 9252.00     5.625E-14
 9256.00     5.531E-14
 9260.00     5.833E-14
 9264.00     5.685E-14
 9268.00     5.714E-14
 9272.00     5.864E-14
 9276.00     5.922E-14
 9280.00     5.740E-14
 9284.00     5.682E-14
 9288.00     5.757E-14
 9292.00     5.392E-14
 9296.00     5.573E-14
 9300.00     5.502E-14
 9304.00     5.530E-14
 9308.00     5.812E-14
 9312.00     5.742E-14
 9316.00     5.615E-14
 9320.00     5.658E-14
 9324.00     5.772E-14
 9328.00     5.631E-14
 9332.00     5.771E-14
 9336.00     5.551E-14
 9340.00     5.469E-14
 9344.00     5.585E-14
 9348.00     5.577E-14
 9352.00     5.400E-14
 9356.00     5.306E-14
 9360.00     5.582E-14
 9364.00     5.581E-14
 9368.00     5.458E-14
 9372.00     5.454E-14
 9376.00     5.440E-14
 9380.00     5.517E-14
 9384.00     5.469E-14
 9388.00     5.475E-14
 9392.00     5.321E-14
 9396.00     5.357E-14
 9400.00     5.509E-14
 9404.00     5.457E-14
 9408.00     5.274E-14
 9412.00     5.180E-14
 9416.00     5.261E-14
 9420.00     5.426E-14
 9424.00     5.662E-14
 9428.00     5.286E-14
 9432.00     5.288E-14
 9436.00     5.369E-14
 9440.00     5.445E-14
 9444.00     5.528E-14
 9448.00     5.553E-14
 9452.00     5.468E-14
 9456.00     5.435E-14
 9460.00     5.623E-14
 9464.00     5.584E-14
 9468.00     5.594E-14
 9472.00     5.643E-14
 9476.00     5.458E-14
 9480.00     5.540E-14
 9484.00     5.628E-14
 9488.00     5.634E-14
 9492.00     5.642E-14
 9496.00     5.650E-14
 9500.00     5.613E-14
 9504.00     5.819E-14
 9508.00     5.748E-14
 9512.00     5.515E-14
 9516.00     5.612E-14
 9520.00     5.662E-14
 9524.00     5.737E-14
 9528.00     5.581E-14
 9532.00     5.665E-14
 9536.00     5.589E-14
 9540.00     5.668E-14
 9544.00     5.552E-14
 9548.00     5.583E-14
 9552.00     5.608E-14
 9556.00     5.509E-14
 9560.00     5.613E-14
 9564.00     5.759E-14
 9568.00     5.720E-14
 9572.00     5.615E-14
 9576.00     5.597E-14
 9580.00     5.663E-14
 9584.00     5.617E-14
 9588.00     5.688E-14
 9592.00     5.596E-14
 9596.00     5.697E-14
 9600.00     5.577E-14
 9604.00     5.708E-14
 9608.00     5.659E-14
 9612.00     5.773E-14
 9616.00     5.804E-14
 9620.00     5.736E-14
 9624.00     5.800E-14
 9628.00     5.658E-14
 9632.00     5.611E-14
 9636.00     5.595E-14
 9640.00     5.601E-14
 9644.00     5.686E-14
 9648.00     5.629E-14
 9652.00     5.644E-14
 9656.00     5.645E-14
 9660.00     5.550E-14
 9664.00     5.629E-14
 9668.00     5.775E-14
 9672.00     5.724E-14
 9676.00     5.663E-14
 9680.00     5.704E-14
 9684.00     5.663E-14
 9688.00     5.756E-14
 9692.00     5.832E-14
 9696.00     5.553E-14
 9700.00     5.399E-14
 9704.00     5.686E-14
 9708.00     5.622E-14
 9712.00     5.793E-14
 9716.00     5.731E-14
 9720.00     5.699E-14
 9724.00     5.699E-14
 9728.00     5.676E-14
 9732.00     5.612E-14
 9736.00     5.688E-14
 9740.00     5.551E-14
 9744.00     5.462E-14
 9748.00     5.545E-14
 9752.00     5.478E-14
 9756.00     5.568E-14
 9760.00     5.704E-14
 9764.00     5.508E-14
 9768.00     5.612E-14
 9772.00     5.662E-14
 9776.00     5.578E-14
 9780.00     5.452E-14
 9784.00     5.517E-14
 9788.00     5.713E-14
 9792.00     5.817E-14
 9796.00     5.710E-14
 9800.00     5.509E-14
 9804.00     5.504E-14
 9808.00     5.631E-14
 9812.00     5.636E-14
 9816.00     5.606E-14
 9820.00     5.527E-14
 9824.00     5.522E-14
 9828.00     5.593E-14
 9832.00     5.685E-14
 9836.00     5.732E-14
 9840.00     5.694E-14
 9844.00     5.654E-14
 9848.00     5.656E-14
 9852.00     5.683E-14
 9856.00     5.681E-14
 9860.00     5.609E-14
 9864.00     5.775E-14
 9868.00     5.910E-14
 9872.00     5.746E-14
 9876.00     5.725E-14
 9880.00     5.674E-14
 9884.00     5.611E-14
 9888.00     5.627E-14
 9892.00     5.654E-14
 9896.00     5.651E-14
 9900.00     3.749E-14
 9904.00     5.734E-14
 9908.00     5.775E-14
 9912.00     5.699E-14
 9916.00     5.603E-14
 9920.00     5.455E-14
 9924.00     5.320E-14
 9928.00     5.382E-14
 9932.00     5.285E-14
 9936.00     5.340E-14
 9940.00     5.501E-14
 9944.00     5.691E-14
 9948.00     5.662E-14
 9952.00     0.000E+00
 9956.00     0.000E+00
 9960.00     0.000E+00
 9964.00     0.000E+00
 9968.00     0.000E+00
 9972.00     0.000E+00
 9976.00     0.000E+00
 9980.00     0.000E+00
 9984.00     0.000E+00
 9988.00     0.000E+00
 9992.00     0.000E+00
 9996.00     0.000E+00
10000.00     0.000E+00
